Project44 DipoleDipole_4
5.00
11
3
Type of measurement (0=app.resistivity,1=resistance)
1
348
2
11
Chargeability
mV/V
8 0.40 0.17 0.03 0.05 0.07 0.08 0.10 0.13 0.15 2.30 1.18
4 10.00 0.00 15.00 0.00 5.00 0.00 0.00 0.00 6.21987 16.4984 14.4561 13.6111 12.7234 11.8093 10.6373 9.56546 8.40531
4 20.00 0.00 25.00 0.00 5.00 0.00 0.00 0.00 0.207286 18.3217 16.4516 15.8355 15.0378 14.1552 13.1048 12.1291 10.9526
4 15.00 0.00 20.00 0.00 10.00 0.00 5.00 0.00 8.62895 20.1821 17.6787 16.6393 15.5388 14.4111 12.9743 11.6564 10.2242
4 20.00 0.00 30.00 0.00 10.00 0.00 0.00 0.00 1.27589 17.7588 15.6436 14.7435 13.743 12.7586 11.5108 10.3643 9.05049
4 20.00 0.00 25.00 0.00 15.00 0.00 10.00 0.00 9.1291 19.7033 17.3979 16.432 15.4078 14.3616 13.0285 11.8044 10.472
4 30.00 0.00 35.00 0.00 5.00 0.00 0.00 0.00 0.019133 15.363 16.4295 15.5554 14.3542 15.2899 14.1454 13.7152 13.0848
4 25.00 0.00 30.00 0.00 10.00 0.00 5.00 0.00 0.0902926 16.7914 14.5997 13.6797 12.5338 11.649 10.7389 9.80927 8.67899
4 25.00 0.00 35.00 0.00 15.00 0.00 5.00 0.00 0.708009 12.3348 10.5871 10.0111 9.35129 8.59136 7.64655 6.96593 5.9835
4 40.00 0.00 45.00 0.00 5.00 0.00 0.00 0.00 0.00224603 -92.6252 -70.6179 -56.1261 -52.7442 -48.145 -40.1694 -30.4522 -17.3296
4 25.00 0.00 30.00 0.00 20.00 0.00 15.00 0.00 4.81284 15.8611 13.8229 12.9634 12.0634 11.1597 10.0226 8.98491 7.87076
4 35.00 0.00 40.00 0.00 10.00 0.00 5.00 0.00 0.0408195 72.127 53.3307 46.0418 38.9123 32.5182 24.7212 18.3958 12.5808
4 30.00 0.00 45.00 0.00 15.00 0.00 0.00 0.00 0.332817 16.8264 13.3406 12.506 11.5002 10.3307 8.87003 7.55937 6.25128
4 30.00 0.00 35.00 0.00 15.00 0.00 10.00 0.00 0.11066 9.44423 8.52428 8.31589 7.89606 7.75109 7.09658 6.60126 6.15991
4 30.00 0.00 40.00 0.00 20.00 0.00 10.00 0.00 1.0245 11.9046 9.7489 8.92462 8.07291 7.15803 6.10157 5.13096 4.20929
4 40.00 0.00 50.00 0.00 10.00 0.00 0.00 0.00 0.0165754 -125.476 -119.941 -107.225 -101.962 -98.5894 -93.0253 -92.763 -84.5305
4 40.00 0.00 45.00 0.00 15.00 0.00 10.00 0.00 0.0105235 5.94387 8.18912 10.5695 9.85762 10.1322 8.90336 8.27231 7.89534
4 30.00 0.00 35.00 0.00 25.00 0.00 20.00 0.00 6.32259 16.0064 14.1448 13.3595 12.5328 11.692 10.6117 9.6198 8.54604
4 45.00 0.00 50.00 0.00 10.00 0.00 5.00 0.00 0.00580993 -208.094 -149.643 -134.93 -118.619 -103.29 -88.0598 -76.2947 -68.8687
4 35.00 0.00 40.00 0.00 20.00 0.00 15.00 0.00 0.275566 21.8486 18.4188 16.5206 14.5869 13.0817 11.2117 9.6607 8.12772
4 35.00 0.00 50.00 0.00 20.00 0.00 5.00 0.00 0.483353 13.127 11.4234 10.5401 9.54363 8.69249 7.63318 6.74263 5.81719
4 45.00 0.00 55.00 0.00 15.00 0.00 5.00 0.00 0.0291335 -40.108 -24.158 -18.7827 -14.4042 -9.89718 -4.89307 -1.93954 0.585186
4 35.00 0.00 45.00 0.00 25.00 0.00 15.00 0.00 2.1816 14.2106 12.3635 11.5342 10.7119 9.88898 8.85136 7.9202 6.90141
4 45.00 0.00 50.00 0.00 20.00 0.00 15.00 0.00 0.0259197 36.2744 24.9319 19.3368 14.8289 10.7003 6.44543 3.27584 0.292161
4 40.00 0.00 55.00 0.00 25.00 0.00 10.00 0.00 0.401653 6.93189 4.18814 4.26976 4.11781 3.64112 2.98976 2.28529 2.21193
4 40.00 0.00 45.00 0.00 25.00 0.00 20.00 0.00 0.133119 4.5115 3.76017 3.43756 3.09094 2.50504 2.28476 1.88492 1.60822
4 35.00 0.00 40.00 0.00 30.00 0.00 25.00 0.00 8.99107 16.3235 14.3036 13.421 12.5022 11.6006 10.4637 9.4338 8.32046
4 50.00 0.00 55.00 0.00 15.00 0.00 10.00 0.00 0.00790633 60.6833 40.7517 33.7203 26.6913 20.8558 13.6086 7.42576 0.811896
4 50.00 0.00 60.00 0.00 20.00 0.00 10.00 0.00 0.0475588 -11.253 -6.06304 -3.14696 -0.176193 2.35354 5.51132 8.74701 11.8377
4 40.00 0.00 50.00 0.00 30.00 0.00 20.00 0.00 0.942561 6.45443 5.5175 5.51581 5.26399 4.98404 4.60014 4.08162 3.74019
4 60.00 0.00 70.00 0.00 10.00 0.00 0.00 0.00 0.00392927 109.44 77.5319 65.7667 55.4069 44.3905 31.6869 26.6496 24.3364
4 60.00 0.00 75.00 0.00 15.00 0.00 0.00 0.00 0.00987843 109.743 80.5472 70.8544 60.2077 50.9286 42.1291 36.8578 30.8356
4 40.00 0.00 45.00 0.00 35.00 0.00 30.00 0.00 2.10705 10.7098 9.22544 8.61444 7.96498 7.31015 6.51364 5.76794 5.01565
4 55.00 0.00 60.00 0.00 20.00 0.00 15.00 0.00 0.012938 -189.311 -133.039 -112.112 -91.3506 -73.6045 -53.6427 -38.3453 -25.0084
4 45.00 0.00 60.00 0.00 30.00 0.00 15.00 0.00 0.78439 11.1384 10.0889 9.3629 8.63173 7.99256 7.23583 6.42974 5.65437
4 45.00 0.00 50.00 0.00 30.00 0.00 25.00 0.00 0.253462 7.63854 7.20683 7.07386 6.85946 6.57758 6.1837 5.75746 5.24128
4 50.00 0.00 55.00 0.00 25.00 0.00 20.00 0.00 0.0716228 20.522 17.0926 15.6717 14.2246 12.8482 11.2603 9.6337 8.12859
4 45.00 0.00 55.00 0.00 35.00 0.00 25.00 0.00 1.86744 16.4401 14.3549 13.4688 12.5494 11.6342 10.4537 9.36753 8.19526
4 65.00 0.00 75.00 0.00 15.00 0.00 5.00 0.00 0.00391652 275.478 196.515 172.197 141.765 110.898 88.4881 74.4106 53.6223
4 55.00 0.00 65.00 0.00 25.00 0.00 15.00 0.00 0.0718912 -12.3726 -5.38514 -3.04614 -0.574225 1.02815 2.94009 4.12953 4.58636
4 60.00 0.00 65.00 0.00 25.00 0.00 20.00 0.00 0.0145987 18.9536 16.6842 14.0075 12.6814 11.808 9.83402 8.90643 6.93402
4 55.00 0.00 60.00 0.00 30.00 0.00 25.00 0.00 0.0912358 17.3808 15.0542 14.1368 13.139 12.1459 10.9828 9.94053 8.70287
4 50.00 0.00 65.00 0.00 35.00 0.00 20.00 0.00 1.37915 21.6165 18.8256 17.7427 16.4878 15.2698 13.6985 12.2832 10.7557
4 50.00 0.00 55.00 0.00 35.00 0.00 30.00 0.00 0.57373 22.4232 19.5502 18.2333 16.9054 15.6306 14.0453 12.6285 11.1178
4 45.00 0.00 50.00 0.00 40.00 0.00 35.00 0.00 2.14037 9.32581 8.26415 7.87227 7.42726 6.95812 6.3438 5.76923 5.15721
4 65.00 0.00 80.00 0.00 20.00 0.00 5.00 0.00 0.0115972 44.4227 34.6621 34.7417 31.748 27.2429 25.4536 22.2471 19.0714
4 80.00 0.00 90.00 0.00 10.00 0.00 0.00 0.00 0.000367438 -1621.99 -1648.23 -1572.95 -1528.84 -1480.28 -1431.47 -1351.89 -1204.54
4 60.00 0.00 70.00 0.00 30.00 0.00 20.00 0.00 0.0718116 26.8958 22.4829 20.7092 19.0008 17.4054 15.4428 13.7131 11.8904
4 70.00 0.00 80.00 0.00 20.00 0.00 10.00 0.00 0.0049591 87.4164 77.9408 77.6184 76.2833 76.3894 77.9147 71.9245 63.9779
4 50.00 0.00 60.00 0.00 40.00 0.00 30.00 0.00 2.64297 20.1073 17.7039 16.6863 15.607 14.4985 13.1114 11.833 10.4492
4 55.00 0.00 70.00 0.00 40.00 0.00 25.00 0.00 1.42828 24.7649 21.7231 20.5721 19.2577 17.9229 16.1995 14.6062 12.9118
4 55.00 0.00 60.00 0.00 40.00 0.00 35.00 0.00 0.567471 21.3705 19.3772 18.3645 17.3241 16.2533 14.8601 13.5432 12.1255
4 70.00 0.00 85.00 0.00 25.00 0.00 10.00 0.00 0.0167384 14.4215 13.7074 6.73191 5.63862 4.33843 1.52057 -1.2232 -1.54506
4 50.00 0.00 55.00 0.00 45.00 0.00 40.00 0.00 14.2045 24.7165 21.9772 20.8037 19.5738 18.3241 16.7331 15.2724 13.6891
4 65.00 0.00 70.00 0.00 30.00 0.00 25.00 0.00 0.0166821 75.5492 57.625 50.1538 44.5906 38.5879 31.9801 26.4874 20.7388
4 60.00 0.00 65.00 0.00 35.00 0.00 30.00 0.00 0.0956298 27.1397 23.665 21.9325 20.4081 18.9629 16.8752 15.1705 13.1428
4 75.00 0.00 85.00 0.00 25.00 0.00 15.00 0.00 0.00763675 52.1008 34.1853 30.1479 26.87 23.0408 18.0994 14.1404 12.0323
4 55.00 0.00 65.00 0.00 45.00 0.00 35.00 0.00 2.0467 19.8299 17.5763 16.6127 15.5981 14.5462 13.2143 11.978 10.619
4 85.00 0.00 95.00 0.00 15.00 0.00 5.00 0.00 0.00127943 -159.635 -79.9274 -85.511 -77.7722 -65.3117 -52.238 -42.9874 -41.1977
4 65.00 0.00 75.00 0.00 35.00 0.00 25.00 0.00 0.104773 31.8023 26.9883 25.4154 23.6719 21.6921 19.4012 17.2826 15.1806
4 90.00 0.00 105.00 0.00 15.00 0.00 0.00 0.00 0.00118818 79.9769 61.8116 85.4768 83.945 83.7875 70.6183 63.6114 45.8832
4 70.00 0.00 75.00 0.00 35.00 0.00 30.00 0.00 0.0278214 30.7665 27.0935 25.7408 24.1168 22.5905 20.5891 18.6424 16.6295
4 55.00 0.00 60.00 0.00 50.00 0.00 45.00 0.00 16.4009 25.9104 22.907 21.6278 20.2872 18.9232 17.1883 15.5971 13.8784
4 65.00 0.00 70.00 0.00 40.00 0.00 35.00 0.00 0.0996238 38.848 33.7603 31.5657 29.4278 27.2201 24.2742 21.6074 18.9013
4 60.00 0.00 75.00 0.00 45.00 0.00 30.00 0.00 0.801485 23.9372 21.0596 19.8493 18.5498 17.2544 15.633 14.1428 12.5233
4 60.00 0.00 65.00 0.00 45.00 0.00 40.00 0.00 0.179713 14.7095 12.8032 11.9234 11.2212 10.4586 9.3176 8.49507 7.45281
4 75.00 0.00 90.00 0.00 30.00 0.00 15.00 0.00 0.0219509 50.0244 38.6223 35.2916 32.2695 28.7259 23.9379 20.4018 16.5855
4 70.00 0.00 80.00 0.00 40.00 0.00 30.00 0.00 0.141437 34.858 29.6828 27.4423 25.3404 23.3551 20.949 18.8086 16.4998
4 60.00 0.00 70.00 0.00 50.00 0.00 40.00 0.00 1.96973 23.7073 20.7612 19.5325 18.2621 16.9853 15.3865 13.9445 12.4036
4 90.00 0.00 100.00 0.00 20.00 0.00 10.00 0.00 0.00136835 115.431 141.382 124.918 120.188 119.748 114.121 102.331 84.3932
4 80.00 0.00 90.00 0.00 30.00 0.00 20.00 0.00 0.0085359 25.2333 19.2429 21.3933 19.6799 17.8076 14.551 13.8092 13.1086
4 80.00 0.00 95.00 0.00 35.00 0.00 20.00 0.00 0.0313942 38.8946 35.9692 33.8961 33.1108 31.2369 29.5093 28.3874 27.776
4 60.00 0.00 65.00 0.00 55.00 0.00 50.00 0.00 10.9421 23.6984 20.9601 19.7964 18.5717 17.3207 15.7201 14.2505 12.6514
4 75.00 0.00 80.00 0.00 40.00 0.00 35.00 0.00 0.0386378 48.5115 37.6063 34.0225 30.2278 26.7013 23.1265 20.2286 16.8179
4 65.00 0.00 70.00 0.00 50.00 0.00 45.00 0.00 0.377846 30.2614 25.1931 23.0803 20.9821 18.9506 16.4736 14.3202 12.1397
4 70.00 0.00 75.00 0.00 45.00 0.00 40.00 0.00 0.0325328 13.3961 11.7959 11.1674 10.6243 9.7679 8.96787 8.32971 7.40477
4 65.00 0.00 80.00 0.00 50.00 0.00 35.00 0.00 0.926974 26.5995 22.6828 21.1993 19.6244 18.0239 16.1046 14.3869 12.5807
4 95.00 0.00 110.00 0.00 20.00 0.00 5.00 0.00 0.00115076 369.832 292.438 221.307 167.809 134.515 104.068 93.6022 65.872
4 95.00 0.00 105.00 0.00 25.00 0.00 15.00 0.00 0.00115795 1240.78 918.105 796.47 678.523 569.524 464.845 376.884 290.085
4 85.00 0.00 95.00 0.00 35.00 0.00 25.00 0.00 0.0151365 38.716 35.675 32.2966 30.0676 28.0684 24.9615 22.0753 18.2784
4 65.00 0.00 75.00 0.00 55.00 0.00 45.00 0.00 2.86805 24.9156 21.8619 20.5952 19.2808 17.911 16.2302 14.6915 13.0007
4 75.00 0.00 85.00 0.00 45.00 0.00 35.00 0.00 0.0867679 27.9534 24.0028 22.2548 20.6804 19.0017 17.0757 15.3521 13.5802
4 85.00 0.00 100.00 0.00 40.00 0.00 25.00 0.00 0.0438495 34.8415 30.6155 26.9186 24.8694 23.0872 20.6059 18.871 16.5811
4 100.00 0.00 115.00 0.00 25.00 0.00 10.00 0.00 0.00111624 2484.21 1948.24 1715 1490.26 1272.41 1027.1 832.407 647.389
4 65.00 0.00 70.00 0.00 60.00 0.00 55.00 0.00 16.1274 26.0903 23.1932 21.9495 20.6409 19.3038 17.5961 16.0202 14.3079
4 70.00 0.00 75.00 0.00 55.00 0.00 50.00 0.00 0.516707 23.6471 20.8892 19.7209 18.4358 17.1247 15.4399 13.8617 12.0992
4 80.00 0.00 85.00 0.00 45.00 0.00 40.00 0.00 0.00921292 3.23689 7.12659 6.18589 8.56852 9.29679 9.3787 9.1577 8.60832
4 75.00 0.00 80.00 0.00 50.00 0.00 45.00 0.00 0.0813067 46.6831 38.442 35.3056 32.2965 29.4702 26.7112 24.7439 23.1706
4 70.00 0.00 85.00 0.00 55.00 0.00 40.00 0.00 1.19464 23.5471 21.0035 19.7786 18.5782 17.3713 15.8114 14.3668 12.8449
4 80.00 0.00 90.00 0.00 50.00 0.00 40.00 0.00 0.0733584 8.08971 9.87265 11.285 12.3896 13.0229 13.6528 14.0333 14.8034
4 90.00 0.00 100.00 0.00 40.00 0.00 30.00 0.00 0.0207975 38.3121 34.9796 32.643 30.1374 27.9626 25.5985 23.3773 20.9686
4 70.00 0.00 80.00 0.00 60.00 0.00 50.00 0.00 3.81586 25.3611 22.5388 21.3364 20.0827 18.8093 17.1937 15.7035 14.0806
4 100.00 0.00 110.00 0.00 30.00 0.00 20.00 0.00 0.00126439 552.153 449.513 392.753 344.83 302.899 239.16 187.2 151.302
4 120.00 0.00 135.00 0.00 15.00 0.00 0.00 0.00 0.000589433 124.333 18.8165 20.3909 34.1353 -3.86649 -51.0714 -87.1808 -148.316
4 85.00 0.00 90.00 0.00 50.00 0.00 45.00 0.00 0.0213851 9.74906 4.55139 3.17018 0.581859 -1.52284 -1.92867 -3.85899 -4.3961
4 75.00 0.00 80.00 0.00 60.00 0.00 55.00 0.00 0.767035 22.7111 20.0183 18.9805 17.8739 16.6847 15.1998 13.841 12.339
4 90.00 0.00 105.00 0.00 45.00 0.00 30.00 0.00 0.0317161 60.5945 49.3628 46.627 42.9379 39.0897 34.1339 30.0532 25.8952
4 105.00 0.00 120.00 0.00 30.00 0.00 15.00 0.00 0.00179097 -80.3233 -74.8759 -60.7495 -55.7614 -52.2632 -38.4203 -41 -24.7137
4 80.00 0.00 85.00 0.00 55.00 0.00 50.00 0.00 0.105197 19.4257 18.4362 17.9425 17.7553 17.4879 17.3078 17.2654 17.2207
4 70.00 0.00 75.00 0.00 65.00 0.00 60.00 0.00 10.9763 25.5194 22.6759 21.4609 20.1737 18.8595 17.1782 15.6231 13.9236
4 75.00 0.00 90.00 0.00 60.00 0.00 45.00 0.00 1.78592 23.4757 20.4331 19.2063 17.915 16.6064 14.967 13.497 11.9036
4 85.00 0.00 95.00 0.00 55.00 0.00 45.00 0.00 0.136219 25.5177 23.4091 22.0218 20.7902 19.5654 17.9372 16.6083 14.9673
4 105.00 0.00 115.00 0.00 35.00 0.00 25.00 0.00 0.000888384 2702.79 1992.79 1728.83 1474.28 1213.79 907.337 755.049 574.556
4 75.00 0.00 85.00 0.00 65.00 0.00 55.00 0.00 3.32899 22.2004 19.5851 18.4759 17.3192 16.1397 14.6399 13.2669 11.7839
4 95.00 0.00 105.00 0.00 45.00 0.00 35.00 0.00 0.00949945 111.035 88.7143 80.5385 71.9643 63.7081 53.0047 43.7396 35.4745
4 95.00 0.00 110.00 0.00 50.00 0.00 35.00 0.00 0.0215981 6.42317 8.6045 9.12592 8.41251 7.80503 7.21441 6.78229 5.28075
4 80.00 0.00 95.00 0.00 65.00 0.00 50.00 0.00 1.71964 25.0355 21.9105 20.6601 19.3637 17.999 16.2481 14.6537 13.0033
4 80.00 0.00 85.00 0.00 65.00 0.00 60.00 0.00 0.53787 21.0269 18.6877 17.6079 16.5345 15.4394 14.0599 12.8202 11.4861
4 110.00 0.00 125.00 0.00 35.00 0.00 20.00 0.00 0.00177563 -81.3311 -48.7414 -52.4929 -26.9366 -33.2635 -17.2432 -18.6743 -25.2442
4 125.00 0.00 140.00 0.00 20.00 0.00 5.00 0.00 0.000564434 297.08 437.342 364.022 329.822 362.67 375.8 389.149 401.431
4 90.00 0.00 95.00 0.00 55.00 0.00 50.00 0.00 0.0388242 19.5169 14.6118 13.8028 11.6253 8.94415 6.27154 4.64953 1.21571
4 85.00 0.00 90.00 0.00 60.00 0.00 55.00 0.00 0.166502 28.7094 24.9308 23.4981 21.9232 20.3709 18.5503 16.7228 14.9725
4 75.00 0.00 80.00 0.00 70.00 0.00 65.00 0.00 9.54127 21.8375 19.2653 18.1874 17.0528 15.8881 14.4097 13.0533 11.5847
4 90.00 0.00 100.00 0.00 60.00 0.00 50.00 0.00 0.195026 33.7096 29.5353 27.5599 25.6964 23.7111 21.236 18.7975 16.1481
4 80.00 0.00 90.00 0.00 70.00 0.00 60.00 0.00 2.77812 19.3179 16.8038 15.7997 14.75 13.6835 12.3337 11.1173 9.81604
4 110.00 0.00 120.00 0.00 40.00 0.00 30.00 0.00 0.00199424 -338.723 -81.1918 32.442 9.12429 -132.157 -2.44199 -6.45111 -17.0349
4 100.00 0.00 110.00 0.00 50.00 0.00 40.00 0.00 0.0055722 -70.2976 -49.389 -44.2132 -40.1352 -34.5471 -29.8836 -23.7255 -16.0086
4 130.00 0.00 145.00 0.00 25.00 0.00 10.00 0.00 0.000274697 -834.595 -681.828 -1065.17 -1023.77 -1196.77 -1183.35 -1137.14 -1012.39
4 90.00 0.00 95.00 0.00 65.00 0.00 60.00 0.00 0.145128 25.0973 21.7509 20.6852 19.2907 17.8835 16.1733 14.7427 13.1266
4 100.00 0.00 115.00 0.00 55.00 0.00 40.00 0.00 0.0171987 116.67 100.127 92.6913 85.5788 77.2807 67.0314 58.5014 50.4772
4 115.00 0.00 130.00 0.00 40.00 0.00 25.00 0.00 0.00325208 -535.229 -427.921 -381.742 -340.468 -296.522 -244.937 -202.855 -163.727
4 95.00 0.00 100.00 0.00 60.00 0.00 55.00 0.00 0.0378396 41.7173 36.9769 35.0133 31.8731 29.2086 26.6055 23.6437 21.248
4 85.00 0.00 90.00 0.00 70.00 0.00 65.00 0.00 0.520435 18.445 15.7432 14.7342 13.6395 12.5823 11.3105 10.1168 8.90879
4 85.00 0.00 100.00 0.00 70.00 0.00 55.00 0.00 1.61488 21.848 18.9266 17.6782 16.4286 15.1821 13.6428 12.2534 10.759
4 80.00 0.00 85.00 0.00 75.00 0.00 70.00 0.00 14.1129 26.5247 23.5706 22.3141 20.9941 19.6484 17.9356 16.3607 14.6543
4 105.00 0.00 115.00 0.00 55.00 0.00 45.00 0.00 0.00562716 366.334 268.662 232.228 198.483 165.279 123.148 99.6035 68.6369
4 115.00 0.00 125.00 0.00 45.00 0.00 35.00 0.00 0.00190288 -1146.82 -884.054 -784.109 -685.305 -600.71 -493.793 -410.973 -337.363
4 95.00 0.00 105.00 0.00 65.00 0.00 55.00 0.00 0.120293 38.8999 32.0783 29.3056 26.4893 23.8821 20.8811 18.3396 15.7894
4 85.00 0.00 95.00 0.00 75.00 0.00 65.00 0.00 4.27041 22.8621 20.2311 19.1069 17.9323 16.7426 15.2322 13.8617 12.3815
4 95.00 0.00 100.00 0.00 70.00 0.00 65.00 0.00 0.080684 24.4469 20.3112 18.7722 17.0534 15.4636 13.908 12.2791 10.717
4 100.00 0.00 105.00 0.00 65.00 0.00 60.00 0.00 0.0177892 54.9186 36.6826 29.8636 23.628 17.1875 9.05754 3.45241 -1.87525
4 90.00 0.00 105.00 0.00 75.00 0.00 60.00 0.00 1.80318 23.6293 20.6526 19.4602 18.192 16.8958 15.2456 13.7216 12.0895
4 120.00 0.00 135.00 0.00 45.00 0.00 30.00 0.00 0.00154652 24.3178 -13.5293 -12.2453 -6.35037 -18.5063 -21.1654 -22.2397 -34.3812
4 85.00 0.00 90.00 0.00 80.00 0.00 75.00 0.00 10.9003 22.5526 19.9849 18.9049 17.7653 16.6069 15.1376 13.7872 12.3304
4 105.00 0.00 120.00 0.00 60.00 0.00 45.00 0.00 0.0170277 10.0633 10.0182 10.7339 10.9996 10.8511 11.3482 11.3989 13.1176
4 135.00 0.00 150.00 0.00 30.00 0.00 15.00 0.00 0.000360134 -3.5059 -46.0186 -9.18174 9.83933 16.6138 14.0647 6.3304 3.82857
4 90.00 0.00 95.00 0.00 75.00 0.00 70.00 0.00 0.911067 24.1114 21.275 20.1644 18.9633 17.7181 16.168 14.7315 13.1652
4 110.00 0.00 120.00 0.00 60.00 0.00 50.00 0.00 0.00620251 -56.0194 13.5883 46.0363 45.2593 15.6444 50.5285 50.6218 46.5187
4 120.00 0.00 130.00 0.00 50.00 0.00 40.00 0.00 0.000703734 351.799 432.768 369.972 411.402 406.559 438.751 466.844 508.77
4 100.00 0.00 110.00 0.00 70.00 0.00 60.00 0.00 0.060495 39.3542 33.3859 30.7759 28.2506 25.8649 22.9683 20.331 18.136
4 90.00 0.00 100.00 0.00 80.00 0.00 70.00 0.00 3.68355 22.1225 19.5307 18.4297 17.282 16.1143 14.6422 13.2949 11.8395
4 95.00 0.00 110.00 0.00 80.00 0.00 65.00 0.00 1.03894 21.0428 18.1845 17.0825 15.8823 14.6947 13.2401 11.9201 10.5319
4 140.00 0.00 155.00 0.00 35.00 0.00 20.00 0.00 0.000666136 817.968 580.04 537.966 490.997 421.348 347.841 300.025 256.583
4 90.00 0.00 95.00 0.00 85.00 0.00 80.00 0.00 10.4642 23.3425 20.6602 19.5357 18.3516 17.1453 15.6156 14.2144 12.7008
4 110.00 0.00 125.00 0.00 65.00 0.00 50.00 0.00 0.0124392 -30.1208 -27.5374 -32.1784 -30.0861 -31.7784 -28.1039 -28.2317 -29.0848
4 105.00 0.00 110.00 0.00 70.00 0.00 65.00 0.00 0.00878227 46.2172 40.0319 38.4615 36.0741 34.3197 33.3316 33.7348 33.0045
4 95.00 0.00 100.00 0.00 80.00 0.00 75.00 0.00 0.427675 18.0561 15.967 14.7394 13.6623 12.612 11.3674 10.2553 9.1198
4 100.00 0.00 105.00 0.00 75.00 0.00 70.00 0.00 0.0768159 24.1893 17.8547 15.5111 13.1351 10.9929 8.55696 6.62223 4.98467
4 125.00 0.00 140.00 0.00 50.00 0.00 35.00 0.00 0.00167108 120.972 130.554 103.923 90.6193 87.6883 72.7893 57.8275 47.953
4 115.00 0.00 125.00 0.00 65.00 0.00 55.00 0.00 0.00384891 -432.786 -342.662 -308.605 -276.511 -244.499 -203.663 -169.861 -140.205
4 105.00 0.00 115.00 0.00 75.00 0.00 65.00 0.00 0.0457578 57.9571 45.1557 38.2792 33.175 27.8829 22.436 19.2439 15.2016
4 125.00 0.00 135.00 0.00 55.00 0.00 45.00 0.00 0.00122875 200.851 180.176 177.569 177.128 170.341 158.669 159.594 121.769
4 95.00 0.00 105.00 0.00 85.00 0.00 75.00 0.00 1.95328 18.6507 16.2932 15.3055 14.287 13.2652 11.9861 10.8197 9.53097
4 100.00 0.00 105.00 0.00 85.00 0.00 80.00 0.00 0.280618 18.9209 16.0831 15.1731 14.032 12.9481 11.6415 10.4622 9.23996
4 130.00 0.00 145.00 0.00 55.00 0.00 40.00 0.00 0.00118786 46.1643 66.7536 -11.8984 8.79779 -31.216 -26.4281 -30.1981 -9.6357
4 115.00 0.00 130.00 0.00 70.00 0.00 55.00 0.00 0.0088493 -203.1 -179.216 -170.706 -158.372 -146.708 -130.451 -117.858 -106.411
4 105.00 0.00 110.00 0.00 80.00 0.00 75.00 0.00 0.0352621 17.116 14.3907 13.4346 12.1475 10.6126 9.15177 7.74683 6.15985
4 100.00 0.00 115.00 0.00 85.00 0.00 70.00 0.00 0.666464 20.7624 17.234 15.8743 14.5256 13.1625 11.543 10.1177 8.6416
4 95.00 0.00 100.00 0.00 90.00 0.00 85.00 0.00 4.861 16.4312 14.3955 13.4765 12.5496 11.6185 10.4431 9.37763 8.22913
4 145.00 0.00 160.00 0.00 40.00 0.00 25.00 0.00 0.000760848 658.464 487.69 445.02 351.62 292.046 233.894 178.305 149.297
4 110.00 0.00 115.00 0.00 75.00 0.00 70.00 0.00 0.00991598 274.713 196.931 165.914 137.165 108.351 73.5544 43.475 13.7806
4 100.00 0.00 110.00 0.00 90.00 0.00 80.00 0.00 1.28364 16.52 14.4455 13.5675 12.6863 11.7946 10.6651 9.64138 8.57859
4 120.00 0.00 130.00 0.00 70.00 0.00 60.00 0.00 0.00261181 -68.9461 -76.8244 -98.3431 -105.6 -124.071 -131.936 -136.549 -130.635
4 110.00 0.00 120.00 0.00 80.00 0.00 70.00 0.00 0.0363144 0.340941 9.84606 14.9118 13.3655 6.4567 10.7028 9.25076 7.35505
4 130.00 0.00 140.00 0.00 60.00 0.00 50.00 0.00 0.000919943 -1130.24 -1266.1 -1303.37 -1308.73 -1389.36 -1429.97 -1492.73 -1532.75
4 105.00 0.00 110.00 0.00 90.00 0.00 85.00 0.00 0.169205 15.2889 13.3352 12.4723 11.507 10.5073 9.24916 8.13492 6.84513
4 120.00 0.00 135.00 0.00 75.00 0.00 60.00 0.00 0.00672742 -98.8604 -108.489 -110.84 -109.325 -108.269 -103.25 -94.5719 -82.1723
4 110.00 0.00 115.00 0.00 85.00 0.00 80.00 0.00 0.0303816 81.9586 60.7899 53.2949 45.6808 38.619 30.0821 22.7702 15.6674
4 105.00 0.00 120.00 0.00 90.00 0.00 75.00 0.00 0.426878 13.6698 12.1026 11.4988 10.833 10.0948 9.15347 8.18369 7.19966
4 150.00 0.00 165.00 0.00 45.00 0.00 30.00 0.00 0.000834522 729.7 609.01 545.197 453.79 416.082 353.121 276.969 227.118
4 100.00 0.00 105.00 0.00 95.00 0.00 90.00 0.00 3.41422 13.2646 11.3531 10.5985 9.78245 8.97861 7.97412 7.08211 6.14113
4 135.00 0.00 150.00 0.00 60.00 0.00 45.00 0.00 0.0012068 -109.763 -128.589 -124.955 -123.206 -132.195 -154.679 -156.213 -164.209
4 115.00 0.00 120.00 0.00 80.00 0.00 75.00 0.00 0.00715074 -360.015 -287.683 -260.623 -235.759 -215.978 -193.416 -176.35 -161.426
4 105.00 0.00 115.00 0.00 95.00 0.00 85.00 0.00 0.901636 12.9953 11.0932 10.1234 9.2685 8.40656 7.42074 6.68456 5.8239
4 125.00 0.00 135.00 0.00 75.00 0.00 65.00 0.00 0.0033605 101.876 93.8472 93.6527 91.0572 85.9193 75.8218 69.7639 65.884
4 115.00 0.00 125.00 0.00 85.00 0.00 75.00 0.00 0.0231937 -46.5613 -32.4222 -26.2486 -21.7251 -16.2801 -9.50181 -3.77096 0.287347
4 135.00 0.00 145.00 0.00 65.00 0.00 55.00 0.00 0.00098123 74.2943 96.9816 68.8417 64.1555 41.0298 43.9175 37.8432 27.6118
4 110.00 0.00 115.00 0.00 95.00 0.00 90.00 0.00 0.16938 28.925 23.5415 21.5172 19.2597 17.0529 14.457 12.358 10.0552
4 120.00 0.00 125.00 0.00 85.00 0.00 80.00 0.00 0.00355825 -39.7895 -53.0903 -53.4871 -52.1913 -59.17 -62.009 -63.2927 -64.2445
4 125.00 0.00 140.00 0.00 80.00 0.00 65.00 0.00 0.00754296 73.1901 70.2137 61.0505 55.7625 53.2847 45.7007 38.2246 29.8498
4 155.00 0.00 170.00 0.00 50.00 0.00 35.00 0.00 0.000569277 156.742 -124.651 -294.266 -431.367 -548.085 -739.745 -925.992 -1112.23
4 140.00 0.00 155.00 0.00 65.00 0.00 50.00 0.00 0.00234317 409.245 323.181 300.031 262.321 213.189 137.072 54.3615 -38.0109
4 105.00 0.00 110.00 0.00 100.00 0.00 95.00 0.00 2.44127 14.9125 13.0882 12.3315 11.55 10.7599 9.77259 8.88519 7.93355
4 115.00 0.00 120.00 0.00 90.00 0.00 85.00 0.00 0.0213104 -83.5366 -66.1837 -60.1405 -54.7438 -50.4965 -44.9722 -40.2124 -36.6706
4 110.00 0.00 125.00 0.00 95.00 0.00 80.00 0.00 0.370355 9.98081 8.93459 8.23969 7.78614 7.19472 6.59039 6.02671 5.38059
4 120.00 0.00 130.00 0.00 90.00 0.00 80.00 0.00 0.017786 4.08903 2.71009 1.00936 1.66172 0.15732 -0.80789 -1.80323 -3.10537
4 140.00 0.00 150.00 0.00 70.00 0.00 60.00 0.00 0.000611544 37.8543 -40.9624 -26.1166 -67.6971 -26.7508 -15.802 -21.2806 -25.7322
4 130.00 0.00 140.00 0.00 80.00 0.00 70.00 0.00 0.00313905 46.8919 35.0381 32.478 37.057 22.7337 20.9563 10.0943 -3.25682
4 110.00 0.00 120.00 0.00 100.00 0.00 90.00 0.00 0.838144 13.553 12.1793 11.6873 10.8524 9.75492 9.03385 8.13367 7.15487
4 115.00 0.00 130.00 0.00 100.00 0.00 85.00 0.00 0.285306 7.78808 5.45611 4.5834 3.91037 3.22821 2.46921 1.8422 1.21004
4 125.00 0.00 130.00 0.00 90.00 0.00 85.00 0.00 0.00436781 -84.0841 -98.3681 -92.8522 -82.6383 -89.8373 -81.9745 -78.376 -71.6472
4 110.00 0.00 115.00 0.00 105.00 0.00 100.00 0.00 3.57581 15.7148 13.8562 13.078 12.2536 11.415 10.3529 9.39155 8.33115
4 160.00 0.00 175.00 0.00 55.00 0.00 40.00 0.00 0.000562951 -280.999 -208.934 -196.355 -213.135 -198.197 -199.626 -242.356 -263.893
4 130.00 0.00 145.00 0.00 85.00 0.00 70.00 0.00 0.00708499 44.9553 56.2604 36.2264 36.7517 30.1554 28.6116 19.7215 13.7272
4 115.00 0.00 120.00 0.00 100.00 0.00 95.00 0.00 0.125256 13.4367 9.98933 8.944 7.63056 6.37239 5.01756 4.05701 3.09678
4 145.00 0.00 160.00 0.00 70.00 0.00 55.00 0.00 0.00185769 236.149 190.524 187.879 168.897 163.07 158.211 153.321 156.482
4 120.00 0.00 125.00 0.00 95.00 0.00 90.00 0.00 0.0147804 26.4959 26.0962 28.3174 30.9589 31.5674 33.4193 34.092 34.7381
4 145.00 0.00 155.00 0.00 75.00 0.00 65.00 0.00 0.00111373 437.358 314.654 286.102 229.334 173.649 147.442 106.768 80.8768
4 135.00 0.00 145.00 0.00 85.00 0.00 75.00 0.00 0.0024639 69.269 69.6492 60.3298 55.6155 40.2015 35.6162 29.932 29.6018
4 115.00 0.00 125.00 0.00 105.00 0.00 95.00 0.00 0.834432 18.6105 14.8663 13.4915 12.0868 10.7789 9.28669 8.07484 6.89942
4 125.00 0.00 135.00 0.00 95.00 0.00 85.00 0.00 0.0235355 14.6314 11.4022 11.4552 10.8318 10.0917 8.64549 7.87395 6.48123
4 150.00 0.00 165.00 0.00 75.00 0.00 60.00 0.00 0.00189611 -111.596 -215.295 -268.302 -334.528 -370.589 -418.455 -491.286 -580.128
4 115.00 0.00 120.00 0.00 110.00 0.00 105.00 0.00 2.51724 11.8967 10.5892 10.082 9.52298 8.94887 8.20382 7.52009 6.76193
4 165.00 0.00 180.00 0.00 60.00 0.00 45.00 0.00 0.00120387 -195.167 -157.34 -207.795 -155.164 -130.862 -145.39 -139.213 -144.757
4 125.00 0.00 130.00 0.00 100.00 0.00 95.00 0.00 0.0194903 15.3988 12.9354 13.2047 14.873 13.1585 14.3845 13.2101 12.884
4 120.00 0.00 125.00 0.00 105.00 0.00 100.00 0.00 0.115413 12.5322 10.9164 10.2873 9.64839 8.82466 7.9262 7.22193 6.35542
4 135.00 0.00 150.00 0.00 90.00 0.00 75.00 0.00 0.00548405 -69.9995 -72.0451 -69.1093 -66.7517 -64.6925 -59.7393 -60.4048 -56.1693
4 120.00 0.00 135.00 0.00 105.00 0.00 90.00 0.00 0.295732 11.1613 9.72043 9.02771 8.43637 7.80225 7.02666 6.35325 5.57324
4 130.00 0.00 135.00 0.00 95.00 0.00 90.00 0.00 0.00578162 41.0095 27.212 28.4406 29.6463 27.4132 24.1013 23.6253 27.7005
4 130.00 0.00 140.00 0.00 100.00 0.00 90.00 0.00 0.0230305 11.1852 7.39944 8.23767 9.72535 7.78054 8.22413 7.24433 6.63173
4 120.00 0.00 130.00 0.00 110.00 0.00 100.00 0.00 0.625457 10.5441 9.23632 8.71976 8.20281 7.60894 6.89745 6.25693 5.54608
4 150.00 0.00 160.00 0.00 80.00 0.00 70.00 0.00 0.00177775 326.255 253.158 238.475 195.377 169.238 142.911 118.055 106.088
4 140.00 0.00 150.00 0.00 90.00 0.00 80.00 0.00 0.00255992 5.10141 -6.0905 -1.32417 -13.0281 -13.3598 -21.0452 -30.8268 -37.5843
4 155.00 0.00 170.00 0.00 80.00 0.00 65.00 0.00 0.00196071 -81.9972 -181.842 -248.888 -312.525 -378.082 -470.596 -574.285 -698.274
4 135.00 0.00 140.00 0.00 100.00 0.00 95.00 0.00 0.00421205 -8.448 -9.40513 -15.0743 -18.0332 -24.0393 -28.0475 -33.5365 -39.1939
4 125.00 0.00 130.00 0.00 110.00 0.00 105.00 0.00 0.128371 3.70159 2.28723 2.37019 2.40074 1.89504 1.59082 1.2379 1.13519
4 120.00 0.00 125.00 0.00 115.00 0.00 110.00 0.00 2.92883 22.9815 20.2739 19.1356 17.9364 16.7232 15.1925 13.804 12.3
4 130.00 0.00 135.00 0.00 105.00 0.00 100.00 0.00 0.029303 18.5876 14.6148 14.1389 13.6966 12.5802 10.9194 9.98845 8.91011
4 140.00 0.00 155.00 0.00 95.00 0.00 80.00 0.00 0.00923961 29.0007 17.2026 14.9458 11.5085 8.45789 3.99042 1.76128 -1.36478
4 170.00 0.00 185.00 0.00 65.00 0.00 50.00 0.00 0.00104968 341.527 290.236 258.098 251.789 215.844 176.762 168.14 171.338
4 125.00 0.00 140.00 0.00 110.00 0.00 95.00 0.00 0.33899 9.63572 8.56002 7.93429 7.40077 6.8875 6.17949 5.65807 5.03303
4 135.00 0.00 145.00 0.00 105.00 0.00 95.00 0.00 0.0239003 12.1519 11.6669 10.5673 9.87273 8.71041 8.71156 8.64086 7.59262
4 125.00 0.00 135.00 0.00 115.00 0.00 105.00 0.00 0.723947 9.42007 8.22561 7.80066 7.30961 6.80175 6.17691 5.62093 5.0345
4 155.00 0.00 165.00 0.00 85.00 0.00 75.00 0.00 0.00146055 198.622 147.855 129.451 122.297 117.546 109.671 118.679 133.476
4 145.00 0.00 155.00 0.00 95.00 0.00 85.00 0.00 0.00439939 -24.9479 -42.9178 -42.2306 -49.9836 -56.4073 -55.7646 -55.8456 -52.0281
4 130.00 0.00 135.00 0.00 115.00 0.00 110.00 0.00 0.14397 16.4269 14.5954 13.88 13.2926 12.5782 11.6778 10.983 10.1993
4 145.00 0.00 160.00 0.00 100.00 0.00 85.00 0.00 0.0128928 74.4709 57.7829 52.1198 44.3184 37.9126 30.7132 22.0616 14.5879
4 140.00 0.00 145.00 0.00 105.00 0.00 100.00 0.00 0.00655812 28.7806 15.2094 23.2101 21.6104 18.7433 18.7918 14.7586 14.8928
4 160.00 0.00 175.00 0.00 85.00 0.00 70.00 0.00 0.00213711 -3.4082 12.3161 23.0146 24.8143 35.1866 25.3799 18.3982 11.0657
4 135.00 0.00 140.00 0.00 110.00 0.00 105.00 0.00 0.0198456 10.2681 9.14175 7.83122 6.88074 5.70877 4.95994 3.40324 1.93627
4 130.00 0.00 145.00 0.00 115.00 0.00 100.00 0.00 0.348562 10.6032 9.74376 8.49395 7.95912 7.26631 6.57824 6.02282 5.32155
4 175.00 0.00 190.00 0.00 70.00 0.00 55.00 0.00 0.0008369 -2.08022 -45.6452 -37.2798 -57.6522 -91.6965 -118.262 -139.143 -128.48
4 125.00 0.00 130.00 0.00 120.00 0.00 115.00 0.00 1.66634 12.753 11.1547 10.5661 9.92599 9.22743 8.36137 7.57795 6.72342
4 140.00 0.00 150.00 0.00 110.00 0.00 100.00 0.00 0.0289823 1.56686 4.69275 3.83922 3.22063 3.72963 3.38862 2.87586 2.24815
4 150.00 0.00 160.00 0.00 100.00 0.00 90.00 0.00 0.00752895 102.114 62.4332 54.4123 38.915 25.4841 11.7435 4.0263 -2.30177
4 160.00 0.00 170.00 0.00 90.00 0.00 80.00 0.00 0.00128336 482.857 374.447 341.833 325.576 291.455 252.395 223.563 190.581
4 130.00 0.00 140.00 0.00 120.00 0.00 110.00 0.00 0.537259 12.0854 10.4642 9.95957 9.43706 8.68908 7.88494 7.08992 6.23324
4 145.00 0.00 150.00 0.00 110.00 0.00 105.00 0.00 0.00710861 60.5633 71.2382 75.101 75.7409 76.3193 75.5946 76.8446 73.8869
4 140.00 0.00 145.00 0.00 115.00 0.00 110.00 0.00 0.024872 7.58986 4.00195 5.43106 4.87569 3.94299 3.49256 2.17176 2.04488
4 135.00 0.00 140.00 0.00 120.00 0.00 115.00 0.00 0.0649229 1.4557 1.58243 1.3477 1.33453 1.24435 1.19423 1.03888 0.75906
4 180.00 0.00 195.00 0.00 75.00 0.00 60.00 0.00 0.000916428 486.828 449.14 447.212 458.235 470.674 432.262 378.119 307.384
4 165.00 0.00 180.00 0.00 90.00 0.00 75.00 0.00 0.00242975 -10.3907 -3.28298 -25.809 -6.08333 2.56262 1.72416 10.1937 25.8934
4 150.00 0.00 165.00 0.00 105.00 0.00 90.00 0.00 0.0207796 88.938 62.66 54.0316 44.958 38.8235 32.885 27.258 23.0713
4 135.00 0.00 150.00 0.00 120.00 0.00 105.00 0.00 0.235622 5.93216 5.22499 4.94198 4.62745 4.22417 3.837 3.48241 3.1322
4 130.00 0.00 135.00 0.00 125.00 0.00 120.00 0.00 3.78987 24.2122 21.3422 20.1356 18.8818 17.6052 15.9881 14.5199 12.9397
4 165.00 0.00 175.00 0.00 95.00 0.00 85.00 0.00 0.00154983 121.908 46.6075 22.4162 -12.0678 -39.4423 -78.4554 -115.104 -129.974
4 145.00 0.00 155.00 0.00 115.00 0.00 105.00 0.00 0.0515042 -19.1723 -8.50595 -4.57421 -1.79049 0.266435 2.76263 3.90315 4.51464
4 155.00 0.00 165.00 0.00 105.00 0.00 95.00 0.00 0.00764918 201.33 133.695 110.718 90.9013 73.1558 54.6569 42.0504 30.3533
4 135.00 0.00 145.00 0.00 125.00 0.00 115.00 0.00 0.325526 11.0159 9.8232 9.30743 8.73901 8.13598 7.49734 6.90304 6.13944
4 170.00 0.00 185.00 0.00 95.00 0.00 80.00 0.00 0.00216044 -59.4137 -74.3329 -85.6996 -83.8592 -94.9689 -101.727 -110.289 -121.318
4 145.00 0.00 150.00 0.00 120.00 0.00 115.00 0.00 0.0167801 50.27 33.5047 28.1301 22.3444 17.0277 11.62 9.79519 8.30712
4 150.00 0.00 155.00 0.00 115.00 0.00 110.00 0.00 0.0206839 -6.07749 5.11133 6.09898 9.09433 12.4659 15.8352 18.2614 19.7531
4 140.00 0.00 155.00 0.00 125.00 0.00 110.00 0.00 0.239018 12.3248 9.97184 9.06821 8.11964 7.27714 6.19931 5.2607 4.30246
4 185.00 0.00 200.00 0.00 80.00 0.00 65.00 0.00 0.000318428 -678.498 -1328.59 -1692.48 -2331.89 -2859.18 -3524.11 -4212.96 -5075.27
4 135.00 0.00 140.00 0.00 130.00 0.00 125.00 0.00 2.72221 15.3866 13.5355 12.7591 11.9517 11.1322 10.1088 9.18235 8.19398
4 155.00 0.00 170.00 0.00 110.00 0.00 95.00 0.00 0.0190522 139.87 93.19 75.7701 61.1385 47.2106 31.5519 19.8168 10.1341
4 140.00 0.00 145.00 0.00 125.00 0.00 120.00 0.00 0.0517676 5.28395 2.16411 3.21612 3.12056 2.53065 2.19875 1.46842 1.51303
4 170.00 0.00 180.00 0.00 100.00 0.00 90.00 0.00 0.00171743 72.2252 59.3867 52.2508 47.4407 40.047 32.0619 20.8175 9.85635
4 160.00 0.00 170.00 0.00 110.00 0.00 100.00 0.00 0.0077997 239.68 180.615 158.688 140.753 120.029 97.9033 78.9224 58.4503
4 150.00 0.00 160.00 0.00 120.00 0.00 110.00 0.00 0.0697822 16.629 15.7096 15.9181 15.2043 14.4516 13.2211 12.1683 10.4958
4 140.00 0.00 150.00 0.00 130.00 0.00 120.00 0.00 0.442105 9.89086 8.99299 8.3232 7.71273 7.21547 6.55133 5.93858 5.2714
4 145.00 0.00 160.00 0.00 130.00 0.00 115.00 0.00 0.286595 6.24879 5.87535 5.55351 5.18939 4.77383 4.2472 3.65309 3.05124
4 140.00 0.00 145.00 0.00 135.00 0.00 130.00 0.00 8.56132 22.0105 19.408 18.3368 17.2089 16.0596 14.6084 13.2835 11.8701
4 175.00 0.00 190.00 0.00 100.00 0.00 85.00 0.00 0.00247303 -92.2223 -82.2732 -80.3826 -80.7372 -84.7687 -86.5932 -89.7861 -68.6762
4 160.00 0.00 175.00 0.00 115.00 0.00 100.00 0.00 0.0194193 164.541 120.891 105.863 90.8391 78.9441 65.9274 56.8372 48.3843
4 155.00 0.00 160.00 0.00 120.00 0.00 115.00 0.00 0.0115409 -289.071 -193.453 -158.284 -127.481 -98.2317 -67.2742 -44.3193 -24.7185
4 145.00 0.00 150.00 0.00 130.00 0.00 125.00 0.00 0.0635663 3.20879 2.89895 2.96306 2.44461 2.22657 1.76123 1.73607 1.23468
4 150.00 0.00 155.00 0.00 125.00 0.00 120.00 0.00 0.0296523 21.9784 18.6344 15.3255 12.9462 11.0116 8.58511 6.74061 4.83076
4 165.00 0.00 175.00 0.00 115.00 0.00 105.00 0.00 0.00765413 331.618 228.189 192.768 157.921 127.44 94.5212 69.2768 50.1716
4 155.00 0.00 165.00 0.00 125.00 0.00 115.00 0.00 0.0358064 -61.9322 -34.534 -25.6885 -17.6042 -11.1216 -5.24832 -1.4241 1.2074
4 145.00 0.00 155.00 0.00 135.00 0.00 125.00 0.00 0.727469 16.4065 14.3195 13.5586 12.6933 11.7752 10.6838 9.66679 8.60597
4 175.00 0.00 185.00 0.00 105.00 0.00 95.00 0.00 0.00213538 112.498 158.913 145.675 146.894 140.649 133.824 119.611 100.284
4 150.00 0.00 155.00 0.00 135.00 0.00 130.00 0.00 0.189056 17.8738 15.7212 14.6949 13.7918 12.905 11.7993 10.8774 9.76381
4 165.00 0.00 180.00 0.00 120.00 0.00 105.00 0.00 0.0171482 -32.5181 -19.6802 -18.1108 -9.43685 -3.5909 0.0788411 1.14704 2.32665
4 180.00 0.00 195.00 0.00 105.00 0.00 90.00 0.00 0.00272279 -303.702 -195.358 -160.258 -127.391 -100.802 -86.3306 -82.7017 -83.4727
4 155.00 0.00 160.00 0.00 130.00 0.00 125.00 0.00 0.0302395 10.143 6.41597 5.59699 3.6639 2.35537 0.645215 -0.952629 -2.4955
4 150.00 0.00 165.00 0.00 135.00 0.00 120.00 0.00 0.441178 13.5629 11.7437 10.9976 10.1547 9.36984 8.34811 7.33535 6.31407
4 145.00 0.00 150.00 0.00 140.00 0.00 135.00 0.00 1.77168 11.6397 10.2428 9.65352 9.02199 8.39676 7.60518 6.90331 6.13113
4 160.00 0.00 165.00 0.00 125.00 0.00 120.00 0.00 0.00558311 86.9569 75.0138 69.7681 64.6822 61.7727 57.7508 54.4637 50.6418
4 150.00 0.00 160.00 0.00 140.00 0.00 130.00 0.00 0.677668 12.6481 10.8447 10.2626 9.53031 8.78194 7.81691 6.94805 6.00664
4 170.00 0.00 180.00 0.00 120.00 0.00 110.00 0.00 0.00671534 -28.3512 -18.9355 -15.2247 -10.6067 -7.06178 -2.98348 1.00262 4.89251
4 160.00 0.00 170.00 0.00 130.00 0.00 120.00 0.00 0.0281856 23.7694 18.6759 15.8646 14.7589 13.3822 12.0578 10.8604 8.57031
4 180.00 0.00 190.00 0.00 110.00 0.00 100.00 0.00 0.00204984 -253.881 -146.987 -129.298 -93.8234 -60.5556 -20.455 16.779 52.6235
4 155.00 0.00 160.00 0.00 140.00 0.00 135.00 0.00 0.0858701 12.0365 9.94318 9.24975 8.59431 7.8947 6.93247 6.14644 5.46047
4 170.00 0.00 185.00 0.00 125.00 0.00 110.00 0.00 0.0128869 58.8219 57.8452 60.2205 62.5301 61.865 63.2955 68.2028 75.0734
4 160.00 0.00 165.00 0.00 135.00 0.00 130.00 0.00 0.0238239 30.3628 26.0404 24.0519 21.8387 19.9382 17.1482 15.1142 12.848
4 155.00 0.00 170.00 0.00 140.00 0.00 125.00 0.00 0.274324 15.4758 13.4773 12.6471 11.8805 11.0696 10.0436 9.10684 8.27518
4 185.00 0.00 200.00 0.00 110.00 0.00 95.00 0.00 0.278408 693.638 643.953 607.036 589.581 570.023 530.286 491.841 447.672
4 150.00 0.00 155.00 0.00 145.00 0.00 140.00 0.00 1.77317 7.02121 6.02415 5.61951 5.2149 4.80974 4.31541 3.8841 3.42756
4 165.00 0.00 170.00 0.00 130.00 0.00 125.00 0.00 0.00664695 46.4887 17.7129 14.7016 4.41905 -5.73712 -13.5332 -21.5949 -28.2085
4 155.00 0.00 165.00 0.00 145.00 0.00 135.00 0.00 0.415475 12.7611 11.2783 10.6309 10.0081 9.38219 8.56069 7.79644 7.02947
4 175.00 0.00 185.00 0.00 125.00 0.00 115.00 0.00 0.00470758 -120.582 -84.6099 -78.7811 -65.536 -54.6178 -42.3209 -35.3713 -30.2864
4 165.00 0.00 175.00 0.00 135.00 0.00 125.00 0.00 0.0296939 14.9406 9.48449 9.60581 8.13298 7.19698 6.16159 4.45178 4.08242
4 185.00 0.00 195.00 0.00 115.00 0.00 105.00 0.00 0.0020152 -156.847 -117.289 -97.9061 -88.9669 -78.5136 -66.907 -63.2741 -59.0573
4 160.00 0.00 165.00 0.00 145.00 0.00 140.00 0.00 0.0515093 16.8356 15.2369 14.344 13.364 12.8167 12.0953 11.5669 10.9238
4 175.00 0.00 190.00 0.00 130.00 0.00 115.00 0.00 0.0108407 110.72 80.3357 72.5779 64.4309 59.0396 55.794 52.4403 52.7912
4 170.00 0.00 175.00 0.00 135.00 0.00 130.00 0.00 0.00700883 82.5643 77.1556 76.9541 80.9357 80.9869 79.3115 84.0001 82.8842
4 155.00 0.00 160.00 0.00 150.00 0.00 145.00 0.00 1.80755 18.465 16.1739 15.2204 14.2314 13.2155 11.9391 10.7825 9.5418
4 165.00 0.00 170.00 0.00 140.00 0.00 135.00 0.00 0.0122014 15.1298 3.10389 1.47979 -3.13163 -7.16461 -11.2489 -15.7435 -17.636
4 160.00 0.00 175.00 0.00 145.00 0.00 130.00 0.00 0.173516 10.8024 10.0315 9.71237 9.19103 8.83403 8.31046 7.73313 7.06895
4 170.00 0.00 180.00 0.00 140.00 0.00 130.00 0.00 0.0223597 5.7855 2.02498 2.79892 2.43873 1.86848 2.2371 1.68468 1.42636
4 190.00 0.00 200.00 0.00 120.00 0.00 110.00 0.00 0.00178065 26.2188 241.069 200.661 175.172 104.506 25.1776 -35.5911 -61.3674
4 180.00 0.00 190.00 0.00 130.00 0.00 120.00 0.00 0.00416717 24.344 29.6076 22.4712 22.5786 20.8939 19.4154 18.2086 16.304
4 160.00 0.00 170.00 0.00 150.00 0.00 140.00 0.00 0.258187 12.6507 10.5526 9.69123 9.01996 8.23319 7.21052 6.3262 5.52376
4 165.00 0.00 180.00 0.00 150.00 0.00 135.00 0.00 0.130558 13.4845 11.6517 10.3843 10.1194 9.3857 8.14203 7.14401 6.096
4 175.00 0.00 180.00 0.00 140.00 0.00 135.00 0.00 0.00372084 -30.5829 -57.0479 -58.3767 -63.5598 -65.3228 -76.2394 -82.8772 -83.2887
4 160.00 0.00 165.00 0.00 155.00 0.00 150.00 0.00 5.48122 26.585 23.4905 22.1728 20.7867 19.3809 17.5952 15.9617 14.1986
4 180.00 0.00 195.00 0.00 135.00 0.00 120.00 0.00 0.00996698 49.8496 47.2584 49.5575 52.4839 56.4823 59.3228 62.4508 61.973
4 165.00 0.00 170.00 0.00 150.00 0.00 145.00 0.00 0.0404735 28.8259 21.8389 20.3929 17.9061 15.6101 13.2025 10.7389 9.75483
4 170.00 0.00 175.00 0.00 145.00 0.00 140.00 0.00 0.0109274 4.88435 -0.247463 -0.445627 1.16377 0.0939591 -1.08783 3.04396 6.44485
4 185.00 0.00 195.00 0.00 135.00 0.00 125.00 0.00 0.00434752 40.6136 26.7175 24.0456 16.6059 12.3106 6.12645 -0.0060818 -4.89814
4 165.00 0.00 175.00 0.00 155.00 0.00 145.00 0.00 0.732473 21.967 19.0638 18.0014 16.8245 15.6489 14.185 12.8088 11.414
4 175.00 0.00 185.00 0.00 145.00 0.00 135.00 0.00 0.0151109 -0.260553 0.748733 -1.1322 -1.82897 -0.954462 -0.0792949 1.30464 2.05603
4 165.00 0.00 170.00 0.00 160.00 0.00 155.00 0.00 7.44815 28.153 24.8246 23.418 21.9312 20.4179 18.4988 16.7355 14.8439
4 175.00 0.00 180.00 0.00 150.00 0.00 145.00 0.00 0.00884126 60.2218 43.4842 39.7738 34.8674 31.6707 24.7055 19.9403 16.8956
4 170.00 0.00 175.00 0.00 155.00 0.00 150.00 0.00 0.138741 15.5104 13.653 12.9323 12.2722 11.4135 10.2706 9.64263 8.49653
4 185.00 0.00 200.00 0.00 140.00 0.00 125.00 0.00 0.00815039 74.1614 34.8946 35.4903 24.207 -13.2534 -44.888 -37.0272 -22.5214
4 170.00 0.00 185.00 0.00 155.00 0.00 140.00 0.00 0.269086 15.5063 13.135 12.3118 11.5739 10.6426 9.55034 8.58857 7.51039
4 180.00 0.00 185.00 0.00 145.00 0.00 140.00 0.00 0.00320238 69.017 76.8344 59.4405 54.567 49.6978 51.4291 48.8659 47.6564
4 180.00 0.00 190.00 0.00 150.00 0.00 140.00 0.00 0.0124653 3.54533 9.02101 4.68822 5.92153 6.04792 6.87883 7.99631 7.92671
4 170.00 0.00 180.00 0.00 160.00 0.00 150.00 0.00 1.15337 23.7945 20.8133 19.6947 18.4625 17.2059 15.6288 14.1978 12.6783
4 190.00 0.00 200.00 0.00 140.00 0.00 130.00 0.00 0.00270178 -187 -23.3703 -24.855 -19.0269 -36.248 -55.1384 -64.1161 -48.7081
4 185.00 0.00 190.00 0.00 150.00 0.00 145.00 0.00 0.00292621 69.8945 76.9034 58.5361 48.3711 50.9925 48.5043 42.3476 34.4278
4 175.00 0.00 180.00 0.00 160.00 0.00 155.00 0.00 0.171491 21.6676 18.2306 17.1795 15.965 14.9109 13.4047 12.107 10.8002
4 170.00 0.00 175.00 0.00 165.00 0.00 160.00 0.00 9.13239 28.1986 24.905 23.5137 22.0504 20.5603 18.6688 16.9469 15.0834
4 180.00 0.00 185.00 0.00 155.00 0.00 150.00 0.00 0.0241999 6.14746 7.8007 6.14946 6.11508 5.80196 6.01184 5.53966 4.91362
4 175.00 0.00 190.00 0.00 160.00 0.00 145.00 0.00 0.355078 19.2376 16.4125 15.3147 14.2184 13.1624 11.9944 10.8911 9.91722
4 185.00 0.00 195.00 0.00 155.00 0.00 145.00 0.00 0.0236178 17.5158 13.7571 14.3428 13.3723 12.3401 11.6102 10.1253 9.08528
4 175.00 0.00 185.00 0.00 165.00 0.00 155.00 0.00 1.53791 24.6221 21.7147 20.4898 19.2029 17.9235 16.2883 14.8054 13.1952
4 180.00 0.00 185.00 0.00 165.00 0.00 160.00 0.00 0.188808 23.5667 21.1245 19.7409 18.5477 17.3024 15.8065 14.3461 12.7968
4 190.00 0.00 195.00 0.00 155.00 0.00 150.00 0.00 0.0070919 74.6688 53.4808 50.2547 43.4427 38.9818 31.9635 26.2355 29.7467
4 185.00 0.00 190.00 0.00 160.00 0.00 155.00 0.00 0.0234341 32.3102 25.494 20.5504 16.8008 14.0967 10.861 8.50172 6.63904
4 180.00 0.00 195.00 0.00 165.00 0.00 150.00 0.00 0.387159 20.3807 17.503 16.517 15.4615 14.3919 12.84 11.4474 10.0276
4 175.00 0.00 180.00 0.00 170.00 0.00 165.00 0.00 16.7527 31.2766 27.6547 26.1233 24.5107 22.8697 20.7826 18.8725 16.8123
4 190.00 0.00 200.00 0.00 160.00 0.00 150.00 0.00 0.0243695 5.99209 22.997 20.6692 19.7221 16.1423 12.1508 8.89176 8.16401
4 180.00 0.00 190.00 0.00 170.00 0.00 160.00 0.00 2.25463 32.5656 28.782 27.141 25.4688 23.7587 21.5942 19.6138 17.4735
4 195.00 0.00 200.00 0.00 160.00 0.00 155.00 0.00 0.00451546 85.4391 70.6733 60.5561 49.0937 43.023 62.4006 14.8756 8.33629
4 190.00 0.00 195.00 0.00 165.00 0.00 160.00 0.00 0.0185245 27.5315 20.1161 18.8059 15.9973 14.1796 10.9368 8.4618 8.47502
4 185.00 0.00 190.00 0.00 170.00 0.00 165.00 0.00 0.279444 33.6317 28.9967 27.0365 25.0797 23.2398 20.8811 18.814 16.6398
4 185.00 0.00 200.00 0.00 170.00 0.00 155.00 0.00 0.45633 67.8927 45.3899 38.6109 32.2066 26.5529 20.5076 16.0193 12.0811
4 180.00 0.00 185.00 0.00 175.00 0.00 170.00 0.00 28.2018 25.756 22.7116 21.4211 20.0721 18.699 16.9603 15.3706 13.6574
4 185.00 0.00 195.00 0.00 175.00 0.00 165.00 0.00 3.99243 30.949 27.3591 25.8644 24.2795 22.6613 20.6052 18.7168 16.6784
4 195.00 0.00 200.00 0.00 170.00 0.00 165.00 0.00 0.0151371 47.2356 37.1297 31.9438 27.209 23.7926 26.5833 12.7381 9.94236
4 185.00 0.00 190.00 0.00 180.00 0.00 175.00 0.00 33.1066 23.658 20.7816 19.5543 18.2715 16.9706 15.3186 13.8095 12.1796
4 190.00 0.00 195.00 0.00 175.00 0.00 170.00 0.00 0.392631 34.0492 30.055 28.471 26.6977 24.9506 22.6696 20.6085 18.526
4 190.00 0.00 200.00 0.00 180.00 0.00 170.00 0.00 3.83227 30.7763 27.4182 25.917 24.3494 22.7342 20.6815 18.7995 16.7848
4 190.00 0.00 195.00 0.00 185.00 0.00 180.00 0.00 25.5218 23.9343 21.1096 19.9222 18.6705 17.4003 15.7907 14.3214 12.7323
4 195.00 0.00 200.00 0.00 180.00 0.00 175.00 0.00 0.328767 31.7051 27.8452 26.2626 24.6297 23.0092 21.2572 18.8576 16.8387
4 195.00 0.00 200.00 0.00 190.00 0.00 185.00 0.00 16.3241 0.0249661 0.0220922 0.0208761 0.0195961 0.0182915 0.0166401 0.0151089 0.0134674
0
0
0
0
0
0
0
0
